Date and Time:                Wed Mar 19 14:04:50.902 2025
Software Version:             4.32.30137.0
Unstabilized Temperature (C): 22,646
Model:                        DU970P_BVF
Data Type:                    Counts (Bg Corrected)
Acquisition Mode:             Accumulate
Trigger Mode:                 Internal
Exposure Time (secs):         1
Accumulate Cycle Time (secs): 1
Frequency (Hz):               1
Number of Accumulations:      10
Readout Mode:                 Full Vertical Binning
Horizontal binning:           1
Shutter Mode:                 Permanently OPEN
TTL level:                    High
Time to open:                 27 ms
Time to close:                27 ms
Extended Data Range:          off
Horizontally flipped:         false
Vertical Shift Speed (usecs): 9,68
Pixel Readout Rate (MHz):     0,05
Baseline Clamp:               ON
Clock Amplitude:              Normal
Output Amplifier:             Electron Multiplying
EM DAC level:                 0
Serial Number:                CCD-28289
Pre-Amplifier Gain:           1x
Spurious Noise Filter Mode:   No Filter
Photon counted:               false
Data Averaging Filter Mode:   No Filter
KY193i:
Serial Number:                KY-3589
Wavelength (nm):              711,54
Grating Groove Density (l/mm):150
Grating Blaze:                500nm
Output Flipper Port:          Direct



284,75507	-73
285,25876	-179
285,76248	-58
286,26624	-115
286,77002	79
287,2738	-86
287,77762	-63
288,28146	-101
288,78531	-84
289,28922	-70
289,79312	-100
290,29706	-23
290,80103	-78
291,30502	-13
291,80902	-41
292,31308	20
292,81714	2
293,32123	-115
293,82532	-201
294,32947	-25
294,83362	-44
295,3378	-26
295,84201	31
296,34625	-49
296,85049	-13
297,35477	25
297,85907	-42
298,3634	31
298,86777	-100
299,37213	7
299,87656	-41
300,38098	-154
300,88541	-137
301,38989	28
301,89441	-47
302,39893	-104
302,90347	-33
303,40805	36
303,91263	-90
304,41727	-114
304,92191	52
305,42657	50
305,93127	-164
306,43597	-17
306,94073	-88
307,4455	22
307,95029	-15
308,45511	18
308,95993	-52
309,46481	-28
309,9697	-34
310,47461	-28
310,97955	6
311,4845	-37
311,9895	-75
312,49451	-128
312,99954	-115
313,50461	10
314,00967	-55
314,5148	-77
315,01993	-154
315,52509	-59
316,03027	106
316,53546	-151
317,04071	6
317,54596	-81
318,05124	-52
318,55655	-6
319,06186	3
319,56723	-75
320,0726	-206
320,578	-116
321,08344	3
321,58887	-68
322,09433	-25
322,59985	-43
323,10538	20
323,6109	-92
324,11649	-122
324,62207	52
325,12769	69
325,63333	-160
326,13901	-64
326,64471	-2
327,15042	-215
327,65616	-65
328,16193	-105
328,66772	-112
329,17352	-111
329,67938	-181
330,18524	-22
330,69113	-63
331,19702	-37
331,70297	-17
332,20892	-28
332,7149	-103
333,22092	-123
333,72696	-125
334,233	-178
334,73911	-33
335,24521	-43
335,75134	15
336,25748	-10
336,76367	28
337,26987	-75
337,77609	-40
338,28235	63
338,78864	6
339,29492	-33
339,80127	74
340,30762	-97
340,814	3
341,32037	-162
341,82681	-24
342,33325	-2
342,83972	46
343,34622	-49
343,85275	34
344,35928	-116
344,86584	2
345,37247	58
345,87906	-18
346,38571	-99
346,89236	90
347,39908	101
347,90579	-80
348,41254	15
348,91928	-42
349,42609	-35
349,93289	2
350,43973	-32
350,94659	-103
351,45349	53
351,96039	77
352,46732	-22
352,97427	59
353,48126	-111
353,98828	-88
354,4953	-22
355,00235	-121
355,50943	-24
356,01654	-193
356,52368	-35
357,03082	63
357,53799	-22
358,0452	-57
358,55243	-20
359,05969	-169
359,56696	-29
360,07428	-47
360,5816	-85
361,08893	-81
361,59631	-135
362,1037	-41
362,61115	-132
363,11859	4
363,62604	14
364,13354	47
364,64105	0
365,14859	-197
365,65616	-70
366,16376	-88
366,67139	-51
367,17902	-60
367,68668	-72
368,19437	87
368,70209	-131
369,20984	-98
369,71759	-76
370,22537	-163
370,73318	-23
371,24103	72
371,7489	-35
372,25677	-177
372,76468	-52
373,27261	-48
373,78058	-62
374,28854	2
374,79657	-67
375,3046	-42
375,81265	-61
376,32071	-118
376,82883	-14
377,33694	-93
377,84509	-75
378,35327	-34
378,86148	-34
379,36972	-27
379,87796	-91
380,38623	-68
380,89453	6
381,40286	-46
381,91119	-65
382,41959	20
382,92798	-46
383,4364	99
383,94482	3
384,45331	-106
384,96179	71
385,47031	-52
385,97885	27
386,48743	47
386,996	-2
387,50464	-60
388,01328	-14
388,52194	-78
389,03061	-24
389,53934	-56
390,04807	-96
390,55682	-97
391,06561	-129
391,57443	-130
392,08325	56
392,59213	43
393,10101	-25
393,60989	-9
394,11884	188
394,62781	86
395,13678	-59
395,64578	-113
396,15482	-180
396,66385	-104
397,17294	9
397,68204	-17
398,19116	103
398,70032	-70
399,2095	23
399,71869	99
400,22791	18
400,73715	-78
401,24643	-39
401,75574	-115
402,26505	-40
402,77441	-97
403,28378	69
403,79318	-107
404,30258	-39
404,81204	-53
405,3215	-29
405,83099	-139
406,34052	-63
406,85004	-71
407,35962	-18
407,8692	5
408,37881	-163
408,88846	-39
409,3981	-133
409,90781	-64
410,41751	-23
410,92725	-8
411,43701	-41
411,94678	-59
412,4566	61
412,96643	-93
413,47629	-18
413,98618	-143
414,49606	-90
415,00601	-73
415,51596	44
416,02594	-101
416,53595	31
417,04596	-16
417,55603	-14
418,0661	-104
418,5762	-110
419,08633	-109
419,59647	-115
420,10663	12
420,61685	-4
421,12708	-110
421,6373	-54
422,14758	-100
422,65787	-59
423,16818	-80
423,67853	-38
424,1889	28
424,69931	-67
425,20972	-60
425,72015	5
426,23062	-83
426,74112	-54
427,25162	-51
427,76218	147
428,27274	-70
428,78333	-95
429,29395	-62
429,80457	-104
430,31522	-156
430,82593	-67
431,33661	37
431,84735	-145
432,35812	47
432,8689	-177
433,3797	-37
433,89053	-251
434,4014	-176
434,91226	-148
435,42319	-28
435,93411	-48
436,44507	-42
436,95602	-104
437,46704	3
437,97806	-27
438,48911	-79
439,00018	-90
439,51129	-104
440,0224	-97
440,53357	-98
441,04474	-45
441,55594	52
442,06714	-120
442,5784	-101
443,08966	-124
443,60095	-56
444,11227	35
444,62363	-55
445,13498	-60
445,64636	69
446,15778	-87
446,66922	-118
447,18069	-5
447,69217	36
448,2037	37
448,71524	-26
449,22681	-83
449,73837	-127
450,25	-32
450,76163	-151
451,27328	-116
451,78497	-30
452,29666	-28
452,80841	70
453,32016	45
453,83194	-94
454,34375	-72
454,85559	-65
455,36743	73
455,8793	-18
456,3912	41
456,90314	110
457,4151	-135
457,92706	-51
458,43906	-121
458,95108	92
459,46313	28
459,97522	117
460,4873	17
460,99942	-89
461,51157	-104
462,02374	7
462,53595	6
463,04816	13
463,56039	38
464,07266	45
464,58496	66
465,09729	88
465,60962	142
466,12198	154
466,63437	83
467,14679	147
467,65924	107
468,17169	160
468,68417	274
469,19669	351
469,70923	179
470,2218	250
470,73438	230
471,24698	243
471,75961	273
472,27228	265
472,78494	163
473,29767	201
473,81039	190
474,32315	250
474,83594	238
475,34872	211
475,86157	147
476,37442	96
476,8873	277
477,40018	250
477,91312	185
478,42606	255
478,93903	133
479,45203	-86
479,96506	104
480,47812	-10
480,99118	-3
481,50427	-59
482,0174	-26
482,53055	-23
483,0437	87
483,55692	-67
484,07013	40
484,58337	35
485,09662	-91
485,60992	42
486,12323	49
486,63657	-20
487,14993	80
487,66333	75
488,17673	34
488,69019	5
489,20364	-108
489,71713	103
490,23062	-74
490,74417	149
491,25772	4
491,7713	-84
492,28491	-35
492,79855	-17
493,31219	83
493,82587	-88
494,3396	-70
494,8533	55
495,36707	7
495,88086	84
496,39465	67
496,90848	-38
497,42233	-3
497,93619	-178
498,4501	-55
498,96402	49
499,47797	-107
499,99194	-30
500,50595	-84
501,01996	-25
501,534	-39
502,04807	87
502,56216	-258
503,07629	-67
503,59042	-28
504,10461	-76
504,6188	-34
505,133	-119
505,64725	-25
506,1615	48
506,67581	-135
507,19012	-128
507,70447	-43
508,21881	-90
508,73322	50
509,24762	-80
509,76205	-54
510,27652	-11
510,79099	-49
511,30551	-54
511,82004	-73
512,33459	-47
512,84918	-133
513,36377	-97
513,87842	-15
514,39307	-103
514,90771	10
515,42242	70
515,93719	-61
516,4519	47
516,96667	-16
517,48151	-71
517,99634	-11
518,51117	-120
519,02606	-129
519,54095	-146
520,05585	0
520,5708	-91
521,08582	-67
521,60077	-21
522,11578	16
522,63086	-48
523,14594	128
523,66101	7
524,17615	-126
524,69128	-96
525,20642	-71
525,72162	-214
526,23682	6
526,75208	-42
527,26733	-7
527,78265	-109
528,29791	-54
528,81329	37
529,32861	-131
529,84399	-101
530,35944	-141
530,87488	-142
531,39032	-25
531,90582	-108
532,42133	-41
532,93683	-77
533,45239	-66
533,96796	13
534,48358	-35
534,99921	5
535,51489	-3
536,03052	-49
536,54626	-38
537,06195	2
537,5777	-161
538,09351	-31
538,60931	-47
539,12512	100
539,64099	96
540,15686	-110
540,67273	-28
541,18866	77
541,70459	-119
542,22058	-100
542,73657	-37
543,25256	23
543,76862	60
544,28467	-50
544,80078	36
545,31689	-152
545,83301	-116
546,34918	-151
546,86536	-54
547,38159	106
547,89783	-3
548,41412	-57
548,93036	-20
549,44672	-132
549,96301	-55
550,47937	-84
550,99579	42
551,51221	173
552,02863	-100
552,54504	-7
553,06152	-92
553,57806	5
554,0946	-10
554,61115	42
555,12775	-27
555,64435	0
556,16095	8
556,67761	-87
557,19427	2
557,711	54
558,22772	-47
558,74445	164
559,26123	-1
559,77802	-47
560,29486	-68
560,81171	-53
561,32855	92
561,84546	-113
562,36237	108
562,87933	-75
563,3963	-230
563,91327	-24
564,4303	-72
564,94733	45
565,46442	39
565,98151	-112
566,4986	46
567,01575	-96
567,5329	-95
568,05011	15
568,56732	28
569,08453	-78
569,60181	-89
570,11908	92
570,63641	1
571,15375	-36
571,67108	17
572,18848	-47
572,70587	23
573,22333	-179
573,74078	46
574,25824	29
574,77576	-36
575,29327	-7
575,81079	5
576,32837	177
576,84601	-236
577,36365	-66
577,88129	-158
578,39893	-33
578,91663	-141
579,43439	-69
579,95209	-67
580,46991	-112
580,98767	113
581,50549	-51
582,02332	14
582,5412	-62
583,05908	69
583,57703	24
584,09497	-59
584,61292	76
585,13092	-67
585,64893	18
586,16699	-30
586,68506	-26
587,20313	93
587,72125	-159
588,23938	103
588,75757	34
589,27576	-55
589,79395	-96
590,31219	11
590,83044	1
591,34869	-61
591,867	-31
592,38538	-197
592,90369	43
593,42206	-9
593,94049	-41
594,45892	-37
594,97736	64
595,49585	-54
596,01434	44
596,5329	-5
597,05145	-50
597,57001	102
598,08862	41
598,60724	-62
599,12585	13
599,64453	-165
600,16327	-40
600,68195	-1
601,20074	-131
601,71948	6
602,23828	-10
602,75708	48
603,27594	-28
603,7948	-4
604,31372	-95
604,83264	39
605,35156	-127
605,87054	-43
606,38953	43
606,90851	-23
607,42755	-1
607,94666	-102
608,4657	-174
608,9848	96
609,50397	26
610,02313	-114
610,5423	-67
611,06152	-79
611,58075	-129
612,09998	52
612,61926	7
613,13861	46
613,6579	-48
614,17725	-7
614,69666	-51
615,21606	-229
615,73547	-68
616,25494	14
616,77441	-2
617,29388	-160
617,81342	-104
618,33301	-47
618,85254	75
619,37213	0
619,89178	-23
620,41144	-77
620,93109	-166
621,45081	23
621,97052	11
622,49023	-48
623,01001	3
623,52985	-63
624,04962	28
624,56946	32
625,08936	-11
625,60925	-13
626,12915	-155
626,64911	-47
627,16907	-41
627,68903	-57
628,20905	5
628,72906	-2
629,24915	-4
629,76923	-51
630,28937	108
630,80945	52
631,32965	96
631,84979	-9
632,37	-117
632,89026	-53
633,41052	-98
633,93079	51
634,45111	-47
634,97144	37
635,49176	79
636,01215	33
636,53253	76
637,05298	-69
637,57343	-73
638,09387	-53
638,61438	-50
639,13495	44
639,65546	-41
640,17603	-207
640,69666	-82
641,21729	-133
641,73792	123
642,25861	-23
642,7793	-70
643,29999	-70
643,82074	-18
644,34149	-39
644,8623	0
645,38312	-122
645,90393	-50
646,4248	145
646,94568	-52
647,46661	-217
647,98755	-90
648,50848	-146
649,02948	-23
649,55048	-41
650,07153	3
650,59259	-65
651,11371	-24
651,63477	-110
652,15594	-60
652,67706	-90
653,19824	94
653,71948	26
654,24072	48
654,76196	-153
655,2832	109
655,8045	13
656,32587	20
656,84723	-136
657,36859	109
657,89001	96
658,41144	-41
658,93286	11
659,45435	97
659,97583	-17
660,49738	-27
661,01892	-19
661,54047	61
662,06207	51
662,58368	154
663,10535	229
663,62701	163
664,14868	46
664,67041	259
665,19214	312
665,71393	215
666,23572	284
666,75751	340
667,27936	350
667,80121	387
668,32312	323
668,84503	318
669,36694	478
669,88892	552
670,41089	718
670,93292	773
671,45496	699
671,97699	1039
672,49908	866
673,02118	1170
673,54333	1102
674,06549	1338
674,58765	1526
675,10986	1410
675,63208	1711
676,15436	1814
676,67664	2119
677,19891	2334
677,72125	2465
678,24359	2497
678,76593	2681
679,28833	2747
679,81079	2901
680,33325	2963
680,85571	3053
681,37817	3124
681,9007	3366
682,42328	3542
682,9458	3938
683,46844	4054
683,99103	4158
684,51367	4264
685,03632	4528
685,55902	4883
686,08173	5116
686,60449	5764
687,12726	6080
687,65002	6514
688,17285	7157
688,69568	7825
689,21857	8533
689,74146	9176
690,26434	10324
690,78729	11023
691,31024	12121
691,83325	12945
692,35626	13896
692,87927	15160
693,40234	16304
693,92542	17305
694,44849	18043
694,97162	18925
695,49481	20346
696,01794	21681
696,54114	23334
697,06439	24864
697,58765	27020
698,1109	28970
698,63422	30380
699,15753	32046
699,68091	32901
700,20428	33920
700,72766	34623
701,2511	35516
701,77454	36486
702,29797	38100
702,82147	39505
703,34503	40933
703,86853	42533
704,39215	42886
704,91571	43643
705,43933	44011
705,96295	44480
706,48663	44463
707,01031	44184
707,53406	43730
708,0578	42685
708,58154	41568
709,10535	40047
709,62915	39327
710,15295	37664
710,67682	36629
711,20074	35453
711,72461	34246
712,24854	33297
712,77252	31466
713,29651	29777
713,8205	28615
714,34454	27338
714,86859	26308
715,39264	25382
715,91675	23991
716,44092	22947
716,96503	21774
717,4892	20462
718,01343	19094
718,53766	17839
719,06189	16606
719,58618	15486
720,11047	14353
720,63477	13231
721,15912	12200
721,68353	11614
722,20789	10894
722,7323	9876
723,25677	9037
723,78125	8101
724,30573	7249
724,83026	6360
725,3548	5660
725,87933	5083
726,40393	4433
726,92859	4110
727,45319	3755
727,97784	3414
728,50256	3129
729,02728	2655
729,552	2517
730,07678	2435
730,60156	2682
731,12634	1891
731,65118	1617
732,17603	1592
732,70093	1573
733,22583	1398
733,75079	1333
734,2757	1037
734,80072	1128
735,32568	1014
735,85071	1247
736,37579	971
736,90088	946
737,42596	808
737,95111	714
738,47626	721
739,0014	761
739,52661	723
740,05182	597
740,57709	560
741,10236	610
741,62769	618
742,15295	477
742,67834	480
743,20367	472
743,72906	460
744,25452	328
744,77997	354
745,30542	291
745,83093	246
746,35645	190
746,88196	213
747,40753	173
747,93311	255
748,45874	156
748,98438	244
749,51001	141
750,03571	153
750,5614	186
751,08716	211
751,61292	69
752,13867	83
752,66449	118
753,19037	42
753,71619	37
754,24207	33
754,76801	89
755,29388	9
755,81989	-1
756,34583	-1
756,87183	44
757,39789	-67
757,92395	93
758,45001	-13
758,97607	70
759,5022	19
760,02838	-147
760,55457	-24
761,08075	-2
761,60699	-21
762,13324	43
762,65948	17
763,18579	39
763,7121	67
764,23846	-83
764,76483	82
765,2912	3
765,81763	179
766,34406	-63
766,87054	-40
767,39703	102
767,92352	115
768,45007	22
768,97662	106
769,50323	-29
770,02985	-68
770,55646	-3
771,08313	43
771,6098	-54
772,13654	8
772,66327	-133
773,19	-94
773,7168	4
774,24359	-57
774,77045	-84
775,2973	-96
775,82416	25
776,35107	-119
776,87799	-50
777,40497	-27
777,93195	-185
778,45892	70
778,98596	-69
779,513	-39
780,0401	7
780,5672	-97
781,0943	95
781,62146	21
782,14862	-35
782,67578	-15
783,203	-96
783,73029	-68
784,25757	58
784,78485	-10
785,31213	76
785,83948	-32
786,36688	-37
786,89423	1
787,42169	-101
787,9491	-158
788,47656	-85
789,00409	-40
789,53156	-135
790,05908	-31
790,58667	12
791,11426	-37
791,64185	-50
792,16949	43
792,69714	-122
793,22485	-27
793,75256	-71
794,28027	-77
794,80804	-68
795,33582	-129
795,86365	-57
796,39148	-8
796,91931	-68
797,4472	-48
797,9751	51
798,50299	-36
799,03094	-153
799,55896	-181
800,08691	-43
800,61499	-9
801,14301	59
801,67108	27
802,19916	-55
802,72729	-38
803,25543	-79
803,78363	22
804,31183	79
804,84003	-157
805,36829	55
805,89655	-27
806,4248	-4
806,95313	79
807,48151	46
808,00983	-43
808,53827	26
809,06665	-10
809,59509	61
810,12354	8
810,65204	46
811,18054	-16
811,70911	-71
812,23767	-8
812,76624	55
813,29486	-5
813,82349	28
814,35211	1
814,8808	-41
815,40955	18
815,93823	101
816,46698	3
816,99579	172
817,5246	-8
818,05341	-13
818,58228	142
819,11115	15
819,64001	-24
820,16895	16
820,69794	-61
821,22687	77
821,75586	60
822,28491	-11
822,81396	-51
823,34302	78
823,87213	107
824,40125	-97
824,93036	-152
825,45953	-8
825,98877	-162
826,51794	-45
827,04718	-20
827,57648	-118
828,10577	-163
828,63507	-121
829,16443	-116
829,69379	-31
830,22314	-16
830,75256	73
831,28204	-98
831,81146	-109
832,34094	-50
832,87048	-42
833,40002	-170
833,92957	40
834,45917	-415
834,98877	-87
835,51837	-25
836,04803	-162
836,5777	13
837,10742	37
837,63715	-28
838,16693	-82
838,69666	-49
839,2265	-68
839,75629	25
840,28613	984
840,81604	-85
841,34595	-83
841,87585	-5
842,40582	-201
842,93579	-92
843,46576	9
843,99579	-67
844,52582	11
845,05591	-20
845,586	99
846,11615	-39
846,64624	-103
847,17645	-71
847,7066	-114
848,23682	50
848,76709	-70
849,29736	-2
849,82764	22
850,35797	-33
850,88831	-114
851,41864	43
851,94904	32
852,47943	-81
853,00989	-56
853,54034	-22
854,0708	91
854,60132	48
855,13184	-51
855,66241	33
856,19299	-25
856,72357	14
857,25421	-136
857,78491	-45
858,31555	-35
858,84625	-21
859,37701	25
859,90771	-22
860,43854	-27
860,9693	39
861,50012	64
862,03101	-69
862,56189	-6
863,09277	-120
863,62366	135
864,15466	174
864,68561	-50
865,21661	-110
865,74762	-51
866,27869	-106
866,80975	14
867,34082	-109
867,87195	-83
868,40308	-139
868,93427	-13
869,46545	94
869,99664	-23
870,52789	-10
871,05914	50
871,59045	-61
872,12177	-46
872,65308	-33
873,18445	-77
873,71582	10
874,24725	-53
874,77869	82
875,31012	88
875,84161	-98
876,37311	-105
876,90466	-118
877,43622	-51
877,96777	-8
878,49939	-95
879,03101	-65
879,56268	8
880,09436	-70
880,62604	21
881,15778	-15
881,68951	-4
882,22131	-41
882,75311	54
883,28491	61
883,81677	-12
884,34863	-146
884,88055	-11
885,41248	-14
885,9444	12
886,47638	-32
887,00836	-75
887,54041	-30
888,07239	12
888,60449	177
889,1366	101
889,6687	-100
890,20081	-2
890,73297	129
891,2652	-28
891,79742	-20
892,32965	-12
892,86188	-12
893,39417	-42
893,92651	-80
894,4588	18
894,99121	-50
895,52356	-32
896,05597	-20
896,58838	-17
897,12085	-22
897,65332	-31
898,18585	-39
898,71838	-15
899,25092	50
899,78351	-47
900,3161	93
900,84875	-68
901,38141	-41
901,91406	7
902,44678	-130
902,97949	35
903,51221	-105
904,04498	-66
904,57782	48
905,1106	-19
905,64349	-86
906,17633	31
906,70923	-120
907,24213	75
907,77509	4
908,30804	81
908,84106	68
909,37408	-169
909,9071	-169
910,44019	-76
910,97327	45
911,50641	-2
912,03949	-19
912,57269	-94
913,1059	-69
913,6391	-49
914,1723	41
914,70557	38
915,23883	-9
915,77216	65
916,30548	54
916,83887	-43
917,37225	-27
917,90564	-51
918,43909	-50
918,97253	-41
919,50598	29
920,03949	120
920,57306	73
921,10657	76
921,64014	42
922,17377	22
922,7074	-38
923,24103	-105
923,77472	-209
924,30841	-62
924,84216	-90
925,37585	-13
925,90967	69
926,44342	-51
926,97729	-36
927,51111	-71
928,04498	33
928,57886	-170
929,11279	-43
929,64673	-14
930,18073	-20
930,71466	-5
931,24872	-3
931,78271	-112
932,31683	-120
932,85089	-99
933,38501	5
933,91913	-14
934,45331	-24
934,98749	6
935,52167	-1
936,05591	-87
936,59021	20
937,12445	-60
937,65875	13
938,19312	11
938,72748	-85
939,26184	-29
939,79626	-10
940,33069	-53
940,86511	-25
941,3996	2
941,93408	48
942,46863	-79
943,00317	7
943,53778	119
944,07239	-36
944,60699	100
945,1416	-21
945,67633	-53
946,211	202
946,74573	-69
947,28046	4
947,81525	-40
948,35004	-121
948,88483	-26
949,41968	-107
949,95453	59
950,48944	-26
951,02435	-69
951,55933	-7
952,09424	10
952,62927	8
953,16425	28
953,69928	-107
954,23438	-241
954,76947	24
955,30457	70
955,83972	-89
956,37488	23
956,91003	-137
957,44525	-67
957,98047	34
958,51575	71
959,05103	56
959,5863	-151
960,12164	52
960,65698	-39
961,19238	-31
961,72778	-113
962,26324	-230
962,79865	-30
963,33417	-13
963,86963	-61
964,40515	-92
964,94073	-22
965,47632	-13
966,0119	57
966,54749	-53
967,08313	5
967,61884	16
968,15454	-74
968,69025	43
969,22601	-65
969,76178	61
970,29755	66
970,83337	-50
971,3692	178
971,90509	91
972,44098	167
972,97687	109
973,51282	-46
974,04877	131
974,58478	-43
975,12079	-1
975,6568	-32
976,19287	-239
976,72894	-40
977,26508	-94
977,80121	37
978,33734	-40
978,87354	-77
979,40973	85
979,94598	-40
980,48224	-138
981,01849	-97
981,55481	-55
982,09113	-43
982,6275	87
983,16388	-10
983,70026	4
984,23669	-58
984,77313	-122
985,30963	112
985,84613	23
986,38263	84
986,91919	76
987,45575	114
987,99237	-46
988,52899	-37
989,06561	-134
989,60229	91
990,13898	-63
990,67572	-81
991,21246	-22
991,74921	-34
992,28601	-220
992,82281	-117
993,35968	7
993,89655	-79
994,43341	-34
994,97034	-39
995,50726	-80
996,04419	-94
996,58118	-8
997,11823	-72
997,65527	58
998,19232	-14
998,72937	-19
999,26648	13
999,80365	2
1000,3408	-195
1000,878	-122
1001,4152	63
1001,9524	5
1002,4896	21
1003,0269	-55
1003,5642	108
1004,1016	46
1004,6389	35
1005,1763	41
1005,7137	-86
1006,2511	32
1006,7886	29
1007,326	-34
1007,8635	-40
1008,4011	43
1008,9386	121
1009,4761	10
1010,0137	-43
1010,5514	-13
1011,0891	48
1011,6267	-9
1012,1644	6
1012,7021	6
1013,2399	44
1013,7776	-68
1014,3154	-86
1014,8532	-96
1015,3911	-29
1015,9289	-21
1016,4668	83
1017,0047	-2
1017,5427	-46
1018,0806	-24
1018,6186	42
1019,1566	-98
1019,6946	-36
1020,2327	-12
1020,7708	-106
1021,3089	-55
1021,847	-144
1022,3851	-122
1022,9233	31
1023,4615	29
1023,9998	6
1024,538	-14
1025,0763	88
1025,6146	20
1026,153	12
1026,6913	90
1027,2296	33
1027,7681	88
1028,3065	102
1028,8448	46
1029,3834	-16
1029,9219	13
1030,4604	12
1030,9989	84
1031,5375	136
1032,076	24
1032,6147	-43
1033,1533	-59
1033,692	-12
1034,2307	106
1034,7694	-18
1035,3082	107
1035,8469	-24
1036,3857	113
1036,9246	135
1037,4634	-104
1038,0022	19
1038,5411	77
1039,0801	-129
1039,6189	5
1040,158	13
1040,6969	-153
1041,236	-30
1041,7749	32
1042,314	86
1042,853	-85
1043,3922	-53
1043,9313	-135
1044,4705	-18
1045,0096	1
1045,5488	3
1046,088	-130
1046,6273	12
1047,1666	-34
1047,7059	52
1048,2452	-64
1048,7845	-2
1049,324	63
1049,8633	-51
1050,4027	-200
1050,9421	-151
1051,4817	-107
1052,0211	-40
1052,5607	-71
1053,1002	-107
1053,6398	-6
1054,1793	38
1054,719	-130
1055,2587	125
1055,7983	-58
1056,338	-30
1056,8777	45
1057,4175	-16
1057,9572	-58
1058,4969	-25
1059,0367	-57
1059,5767	-92
1060,1165	-128
1060,6564	108
1061,1963	-113
1061,7362	-120
1062,2761	46
1062,8162	-8
1063,3562	53
1063,8962	81
1064,4363	84
1064,9763	-37
1065,5165	-19
1066,0565	16
1066,5967	-11
1067,1368	78
1067,6771	17
1068,2173	57
1068,7576	12
1069,2979	-22
1069,8381	42
1070,3784	67
1070,9188	-58
1071,4591	-92
1071,9995	23
1072,5399	46
1073,0804	141
1073,6208	0
1074,1614	31
1074,7019	-37
1075,2424	-74
1075,783	125
1076,3236	12
1076,8643	163
1077,4048	123
1077,9456	98
1078,4862	-38
1079,0269	163
1079,5676	49
1080,1084	12
1080,6492	-214
1081,1899	25
1081,7308	86
1082,2717	84
1082,8126	17
1083,3535	-43
1083,8944	-59
1084,4353	11
1084,9763	93
1085,5173	42
1086,0583	71
1086,5994	103
1087,1405	161
1087,6816	87
1088,2228	41
1088,7639	99
1089,3051	94
1089,8462	4
1090,3875	-105
1090,9287	58
1091,47	145
1092,0112	32
1092,5526	59
1093,094	59
1093,6354	-74
1094,1768	-8
1094,7181	-25
1095,2595	103
1095,801	-15
1096,3425	-10
1096,884	123
1097,4255	149
1097,9672	12
1098,5088	58
1099,0503	56
1099,592	-1
1100,1337	-85
1100,6753	10
1101,217	58
1101,7588	29
1102,3005	74
1102,8423	-67
1103,3842	67
1103,9259	65
1104,4678	-67
1105,0096	45
1105,5516	-23
1106,0935	111
1106,6355	116
1107,1775	76
1107,7195	37
1108,2615	-20
1108,8036	-66
1109,3456	-90
1109,8877	122
1110,4298	71
1110,972	8
1111,5142	30
1112,0564	52
1112,5986	-114
1113,1409	-9
1113,6831	-80
1114,2253	58
1114,7677	17
1115,3101	-52
1115,8524	70
1116,3948	1
1116,9373	110
1117,4796	-77
1118,0221	61
1118,5646	159
1119,1072	120
1119,6497	200
1120,1923	39
1120,7349	26
1121,2775	114
